#T[Ga]	 a[RE]		 obliq_E[deg]	 obliq_M[deg]	 inc_M[deg]
0.000	 60.142611	 23.254500	 6.626660	 5.145000 
0.001	 60.136601	 23.251864	 6.627394	 5.145129 
0.002	 60.130591	 23.249229	 6.628129	 5.145257 
0.003	 60.124581	 23.246593	 6.628864	 5.145386 
0.004	 60.118570	 23.243958	 6.629600	 5.145514 
0.005	 60.112560	 23.241323	 6.630336	 5.145643 
0.006	 60.106550	 23.238688	 6.631072	 5.145772 
0.007	 60.100540	 23.236053	 6.631809	 5.145900 
0.008	 60.094530	 23.233419	 6.632546	 5.146029 
0.009	 60.088520	 23.230786	 6.633283	 5.146157 
0.010	 60.082510	 23.228153	 6.634021	 5.146286 
0.011	 60.075766	 23.225199	 6.634839	 5.146423 
0.012	 60.069022	 23.222246	 6.635668	 5.146567 
0.013	 60.062277	 23.219293	 6.636498	 5.146712 
0.014	 60.055533	 23.216342	 6.637327	 5.146856 
0.015	 60.048789	 23.213392	 6.638157	 5.147001 
0.016	 60.042045	 23.210443	 6.638988	 5.147145 
0.017	 60.035301	 23.207495	 6.639819	 5.147290 
0.018	 60.028557	 23.204549	 6.640651	 5.147434 
0.019	 60.021813	 23.201603	 6.641483	 5.147579 
0.020	 60.013600	 23.198018	 6.642477	 5.147739 
0.021	 60.007192	 23.195222	 6.643293	 5.147896 
0.022	 60.000799	 23.192433	 6.644084	 5.148033 
0.023	 59.994423	 23.189653	 6.644873	 5.148170 
0.024	 59.988063	 23.186881	 6.645660	 5.148307 
0.025	 59.981719	 23.184116	 6.646445	 5.148443 
0.026	 59.975391	 23.181360	 6.647229	 5.148579 
0.027	 59.969079	 23.178611	 6.648012	 5.148715 
0.028	 59.962783	 23.175870	 6.648793	 5.148850 
0.029	 59.956503	 23.173137	 6.649572	 5.148985 
0.030	 59.950239	 23.170411	 6.650350	 5.149120 
0.031	 59.943991	 23.167694	 6.651126	 5.149254 
0.032	 59.937758	 23.164984	 6.651901	 5.149388 
0.033	 59.931542	 23.162281	 6.652674	 5.149522 
0.034	 59.925341	 23.159587	 6.653446	 5.149655 
0.035	 59.919156	 23.156899	 6.654216	 5.149788 
0.036	 59.912986	 23.154220	 6.654985	 5.149921 
0.037	 59.906833	 23.151548	 6.655751	 5.150053 
0.038	 59.900694	 23.148883	 6.656517	 5.150185 
0.039	 59.894572	 23.146226	 6.657281	 5.150317 
0.040	 59.888464	 23.143576	 6.658043	 5.150449 
0.041	 59.882373	 23.140934	 6.658804	 5.150580 
0.042	 59.876296	 23.138300	 6.659563	 5.150711 
0.043	 59.870235	 23.135672	 6.660321	 5.150841 
0.044	 59.864189	 23.133052	 6.661077	 5.150971 
0.045	 59.858159	 23.130440	 6.661832	 5.151101 
0.046	 59.852143	 23.127835	 6.662585	 5.151231 
0.047	 59.846143	 23.125237	 6.663337	 5.151360 
0.048	 59.840158	 23.122646	 6.664087	 5.151489 
0.049	 59.834188	 23.120063	 6.664836	 5.151618 
0.050	 59.828234	 23.117487	 6.665583	 5.151746 
0.051	 59.822294	 23.114919	 6.666328	 5.151874 
0.052	 59.816369	 23.112357	 6.667073	 5.152002 
0.053	 59.810459	 23.109803	 6.667815	 5.152129 
0.054	 59.804564	 23.107256	 6.668556	 5.152256 
0.055	 59.798684	 23.104716	 6.669296	 5.152383 
0.056	 59.792818	 23.102183	 6.670034	 5.152510 
0.057	 59.786968	 23.099657	 6.670771	 5.152636 
0.058	 59.781132	 23.097139	 6.671506	 5.152762 
0.059	 59.775312	 23.094627	 6.672240	 5.152887 
0.060	 59.769506	 23.092123	 6.672972	 5.153013 
0.061	 59.763715	 23.089626	 6.673702	 5.153138 
0.062	 59.757939	 23.087136	 6.674431	 5.153262 
0.063	 59.752178	 23.084653	 6.675159	 5.153387 
0.064	 59.746432	 23.082177	 6.675885	 5.153511 
0.065	 59.740701	 23.079709	 6.676610	 5.153635 
0.066	 59.734986	 23.077248	 6.677332	 5.153758 
0.067	 59.729286	 23.074794	 6.678054	 5.153881 
0.068	 59.723602	 23.072348	 6.678773	 5.154004 
0.069	 59.717935	 23.069909	 6.679491	 5.154126 
0.070	 59.712283	 23.067478	 6.680207	 5.154249 
0.071	 59.706648	 23.065055	 6.680922	 5.154370 
0.072	 59.701031	 23.062640	 6.681634	 5.154492 
0.073	 59.695431	 23.060233	 6.682345	 5.154613 
0.074	 59.689850	 23.057835	 6.683054	 5.154734 
0.075	 59.684289	 23.055446	 6.683760	 5.154854 
0.076	 59.678746	 23.053065	 6.684465	 5.154974 
0.077	 59.673223	 23.050694	 6.685167	 5.155093 
0.078	 59.667720	 23.048332	 6.685867	 5.155212 
0.079	 59.662233	 23.045977	 6.686565	 5.155331 
0.080	 59.656761	 23.043630	 6.687262	 5.155449 
0.081	 59.651297	 23.041286	 6.687958	 5.155567 
0.082	 59.645841	 23.038947	 6.688653	 5.155685 
0.083	 59.640393	 23.036611	 6.689348	 5.155803 
0.084	 59.634952	 23.034280	 6.690042	 5.155921 
0.085	 59.629518	 23.031952	 6.690735	 5.156038 
0.086	 59.624091	 23.029627	 6.691428	 5.156156 
0.087	 59.618669	 23.027305	 6.692121	 5.156273 
0.088	 59.613253	 23.024986	 6.692813	 5.156390 
0.089	 59.607841	 23.022670	 6.693505	 5.156507 
0.090	 59.602433	 23.020356	 6.694196	 5.156624 
0.091	 59.597030	 23.018044	 6.694888	 5.156741 
0.092	 59.591630	 23.015735	 6.695579	 5.156858 
0.093	 59.586233	 23.013427	 6.696270	 5.156975 
0.094	 59.580839	 23.011122	 6.696961	 5.157092 
0.095	 59.575447	 23.008818	 6.697653	 5.157208 
0.096	 59.570059	 23.006516	 6.698344	 5.157325 
0.097	 59.564673	 23.004215	 6.699035	 5.157442 
0.098	 59.559290	 23.001917	 6.699726	 5.157558 
0.099	 59.553910	 22.999620	 6.700417	 5.157675 
0.100	 59.548533	 22.997325	 6.701108	 5.157791 
0.101	 59.543159	 22.995032	 6.701799	 5.157908 
0.102	 59.537789	 22.992742	 6.702489	 5.158024 
0.103	 59.532423	 22.990453	 6.703180	 5.158140 
0.104	 59.527062	 22.988168	 6.703870	 5.158256 
0.105	 59.521705	 22.985884	 6.704560	 5.158373 
0.106	 59.516354	 22.983604	 6.705249	 5.158489 
0.107	 59.511007	 22.981326	 6.705939	 5.158604 
0.108	 59.505667	 22.979052	 6.706627	 5.158720 
0.109	 59.500333	 22.976780	 6.707316	 5.158836 
0.110	 59.495005	 22.974512	 6.708004	 5.158951 
0.111	 59.489683	 22.972247	 6.708691	 5.159067 
0.112	 59.484368	 22.969986	 6.709378	 5.159182 
0.113	 59.479060	 22.967728	 6.710064	 5.159297 
0.114	 59.473759	 22.965474	 6.710750	 5.159412 
0.115	 59.468465	 22.963223	 6.711435	 5.159527 
0.116	 59.463179	 22.960976	 6.712119	 5.159642 
0.117	 59.457899	 22.958732	 6.712803	 5.159757 
0.118	 59.452627	 22.956492	 6.713486	 5.159871 
0.119	 59.447362	 22.954256	 6.714168	 5.159986 
0.120	 59.442104	 22.952024	 6.714850	 5.160100 
0.121	 59.436854	 22.949795	 6.715532	 5.160214 
0.122	 59.431611	 22.947570	 6.716212	 5.160328 
0.123	 59.426374	 22.945348	 6.716892	 5.160441 
0.124	 59.421144	 22.943129	 6.717572	 5.160555 
0.125	 59.415920	 22.940914	 6.718251	 5.160668 
0.126	 59.410701	 22.938701	 6.718930	 5.160782 
0.127	 59.405488	 22.936491	 6.719608	 5.160895 
0.128	 59.400278	 22.934283	 6.720286	 5.161008 
0.129	 59.395071	 22.932077	 6.720964	 5.161121 
0.130	 59.389867	 22.929873	 6.721642	 5.161235 
0.131	 59.384663	 22.927669	 6.722320	 5.161348 
0.132	 59.379460	 22.925466	 6.722998	 5.161461 
0.133	 59.374254	 22.923263	 6.723677	 5.161574 
0.134	 59.369046	 22.921059	 6.724357	 5.161687 
0.135	 59.363831	 22.918853	 6.725038	 5.161800 
0.136	 59.358607	 22.916643	 6.725720	 5.161914 
0.137	 59.353370	 22.914429	 6.726404	 5.162027 
0.138	 59.348116	 22.912208	 6.727091	 5.162141 
0.139	 59.342842	 22.909979	 6.727780	 5.162256 
0.140	 59.337542	 22.907740	 6.728474	 5.162371 
0.141	 59.332213	 22.905489	 6.729171	 5.162487 
0.142	 59.326849	 22.903224	 6.729873	 5.162603 
0.143	 59.321448	 22.900943	 6.730580	 5.162720 
0.144	 59.316005	 22.898646	 6.731293	 5.162838 
0.145	 59.310518	 22.896330	 6.732012	 5.162957 
0.146	 59.304988	 22.893997	 6.732737	 5.163077 
0.147	 59.299413	 22.891646	 6.733469	 5.163198 
0.148	 59.293795	 22.889277	 6.734206	 5.163319 
0.149	 59.288136	 22.886892	 6.734949	 5.163442 
0.150	 59.282439	 22.884491	 6.735698	 5.163566 
0.151	 59.276709	 22.882077	 6.736451	 5.163690 
0.152	 59.270949	 22.879651	 6.737209	 5.163815 
0.153	 59.265166	 22.877216	 6.737970	 5.163941 
0.154	 59.259364	 22.874773	 6.738734	 5.164067 
0.155	 59.253549	 22.872326	 6.739501	 5.164194 
0.156	 59.247727	 22.869876	 6.740268	 5.164321 
0.157	 59.241902	 22.867426	 6.741037	 5.164448 
0.158	 59.236080	 22.864978	 6.741806	 5.164574 
0.159	 59.230266	 22.862534	 6.742574	 5.164701 
0.160	 59.224464	 22.860096	 6.743341	 5.164828 
0.161	 59.218678	 22.857665	 6.744106	 5.164954 
0.162	 59.212911	 22.855242	 6.744869	 5.165080 
0.163	 59.207166	 22.852830	 6.745630	 5.165206 
0.164	 59.201445	 22.850428	 6.746388	 5.165331 
0.165	 59.195750	 22.848038	 6.747143	 5.165455 
0.166	 59.190081	 22.845659	 6.747894	 5.165579 
0.167	 59.184438	 22.843292	 6.748643	 5.165703 
0.168	 59.178821	 22.840937	 6.749389	 5.165825 
0.169	 59.173228	 22.838592	 6.750132	 5.165948 
0.170	 59.167659	 22.836257	 6.750872	 5.166070 
0.171	 59.162110	 22.833932	 6.751609	 5.166191 
0.172	 59.156580	 22.831616	 6.752345	 5.166312 
0.173	 59.151066	 22.829307	 6.753078	 5.166432 
0.174	 59.145565	 22.827003	 6.753811	 5.166553 
0.175	 59.140073	 22.824704	 6.754542	 5.166673 
0.176	 59.134587	 22.822408	 6.755273	 5.166793 
0.177	 59.129103	 22.820114	 6.756004	 5.166912 
0.178	 59.123617	 22.817819	 6.756735	 5.167032 
0.179	 59.118126	 22.815523	 6.757468	 5.167152 
0.180	 59.112625	 22.813224	 6.758202	 5.167272 
0.181	 59.107112	 22.810920	 6.758938	 5.167393 
0.182	 59.101584	 22.808609	 6.759676	 5.167513 
0.183	 59.096036	 22.806292	 6.760417	 5.167634 
0.184	 59.090467	 22.803966	 6.761161	 5.167756 
0.185	 59.084873	 22.801631	 6.761909	 5.167878 
0.186	 59.079254	 22.799285	 6.762661	 5.168001 
0.187	 59.073608	 22.796929	 6.763417	 5.168124 
0.188	 59.067932	 22.794562	 6.764177	 5.168248 
0.189	 59.062228	 22.792182	 6.764941	 5.168372 
0.190	 59.056494	 22.789791	 6.765710	 5.168497 
0.191	 59.050730	 22.787389	 6.766483	 5.168623 
0.192	 59.044937	 22.784975	 6.767260	 5.168749 
0.193	 59.039117	 22.782550	 6.768042	 5.168877 
0.194	 59.033270	 22.780115	 6.768827	 5.169004 
0.195	 59.027399	 22.777670	 6.769616	 5.169132 
0.196	 59.021506	 22.775217	 6.770409	 5.169261 
0.197	 59.015592	 22.772756	 6.771205	 5.169391 
0.198	 59.009662	 22.770289	 6.772003	 5.169520 
0.199	 59.003717	 22.767816	 6.772804	 5.169650 
0.200	 58.997760	 22.765339	 6.773607	 5.169781 
0.201	 58.991795	 22.762860	 6.774411	 5.169911 
0.202	 58.985823	 22.760378	 6.775217	 5.170042 
0.203	 58.979848	 22.757896	 6.776024	 5.170173 
0.204	 58.973873	 22.755414	 6.776831	 5.170304 
0.205	 58.967900	 22.752934	 6.777639	 5.170435 
0.206	 58.961932	 22.750456	 6.778446	 5.170566 
0.207	 58.955971	 22.747982	 6.779253	 5.170696 
0.208	 58.950021	 22.745514	 6.780058	 5.170827 
0.209	 58.944084	 22.743051	 6.780863	 5.170957 
0.210	 58.938163	 22.740596	 6.781665	 5.171087 
0.211	 58.932260	 22.738149	 6.782466	 5.171217 
0.212	 58.926379	 22.735712	 6.783264	 5.171346 
0.213	 58.920521	 22.733285	 6.784060	 5.171475 
0.214	 58.914689	 22.730870	 6.784852	 5.171603 
0.215	 58.908887	 22.728467	 6.785641	 5.171731 
0.216	 58.903118	 22.726079	 6.786426	 5.171858 
0.217	 58.897384	 22.723705	 6.787206	 5.171984 
0.218	 58.891688	 22.721349	 6.787982	 5.172110 
0.219	 58.886035	 22.719011	 6.788753	 5.172234 
0.220	 58.880428	 22.716692	 6.789517	 5.172358 
0.221	 58.874871	 22.714395	 6.790275	 5.172481 
0.222	 58.869368	 22.712120	 6.791026	 5.172602 
0.223	 58.863923	 22.709870	 6.791770	 5.172722 
0.224	 58.858541	 22.707647	 6.792506	 5.172841 
0.225	 58.853226	 22.705452	 6.793232	 5.172959 
0.226	 58.847983	 22.703287	 6.793950	 5.173075 
0.227	 58.842817	 22.701154	 6.794657	 5.173189 
0.228	 58.837734	 22.699057	 6.795353	 5.173302 
0.229	 58.832739	 22.696996	 6.796038	 5.173413 
0.230	 58.827837	 22.694973	 6.796710	 5.173521 
0.231	 58.823033	 22.692992	 6.797370	 5.173628 
0.232	 58.818333	 22.691054	 6.798015	 5.173733 
0.233	 58.813741	 22.689161	 6.798646	 5.173835 
0.234	 58.809261	 22.687315	 6.799262	 5.173934 
0.235	 58.804898	 22.685517	 6.799862	 5.174032 
0.236	 58.800655	 22.683769	 6.800446	 5.174126 
0.237	 58.796534	 22.682072	 6.801013	 5.174218 
0.238	 58.792539	 22.680426	 6.801563	 5.174308 
0.239	 58.788670	 22.678833	 6.802097	 5.174394 
0.240	 58.784927	 22.677292	 6.802613	 5.174478 
0.241	 58.781310	 22.675804	 6.803112	 5.174559 
0.242	 58.777816	 22.674366	 6.803594	 5.174637 
0.243	 58.774443	 22.672978	 6.804060	 5.174713 
0.244	 58.771186	 22.671638	 6.804509	 5.174786 
0.245	 58.768040	 22.670344	 6.804944	 5.174856 
0.246	 58.765000	 22.669093	 6.805364	 5.174924 
0.247	 58.762058	 22.667884	 6.805771	 5.174990 
0.248	 58.759208	 22.666712	 6.806164	 5.175054 
0.249	 58.756440	 22.665574	 6.806547	 5.175116 
0.250	 58.753747	 22.664467	 6.806919	 5.175176 
0.251	 58.751118	 22.663386	 6.807282	 5.175234 
0.252	 58.748543	 22.662328	 6.807638	 5.175292 
0.253	 58.746014	 22.661289	 6.807988	 5.175348 
0.254	 58.743521	 22.660264	 6.808332	 5.175403 
0.255	 58.741056	 22.659252	 6.808672	 5.175458 
0.256	 58.738613	 22.658248	 6.809010	 5.175512 
0.257	 58.736183	 22.657250	 6.809345	 5.175566 
0.258	 58.733763	 22.656256	 6.809680	 5.175619 
0.259	 58.731347	 22.655264	 6.810013	 5.175672 
0.260	 58.728929	 22.654271	 6.810347	 5.175726 
0.261	 58.726506	 22.653276	 6.810682	 5.175779 
0.262	 58.724070	 22.652276	 6.811018	 5.175832 
0.263	 58.721616	 22.651269	 6.811357	 5.175886 
0.264	 58.719135	 22.650251	 6.811700	 5.175941 
0.265	 58.716617	 22.649218	 6.812047	 5.175996 
0.266	 58.714051	 22.648165	 6.812401	 5.176052 
0.267	 58.711423	 22.647087	 6.812764	 5.176109 
0.268	 58.708719	 22.645977	 6.813137	 5.176168 
0.269	 58.705921	 22.644830	 6.813523	 5.176228 
0.270	 58.703011	 22.643636	 6.813924	 5.176291 
0.271	 58.699970	 22.642389	 6.814343	 5.176357 
0.272	 58.696777	 22.641080	 6.814783	 5.176426 
0.273	 58.693411	 22.639701	 6.815247	 5.176498 
0.274	 58.689849	 22.638241	 6.815738	 5.176574 
0.275	 58.686067	 22.636691	 6.816259	 5.176655 
0.276	 58.682041	 22.635041	 6.816814	 5.176741 
0.277	 58.677745	 22.633281	 6.817406	 5.176833 
0.278	 58.673154	 22.631401	 6.818039	 5.176931 
0.279	 58.668242	 22.629390	 6.818716	 5.177036 
0.280	 58.662986	 22.627238	 6.819441	 5.177148 
0.281	 58.657359	 22.624935	 6.820218	 5.177268 
0.282	 58.651341	 22.622473	 6.821049	 5.177397 
0.283	 58.644908	 22.619842	 6.821938	 5.177534 
0.284	 58.638041	 22.617034	 6.822888	 5.177681 
0.285	 58.630722	 22.614042	 6.823901	 5.177837 
0.286	 58.622935	 22.610860	 6.824979	 5.178004 
0.287	 58.614665	 22.607482	 6.826126	 5.178182 
0.288	 58.605900	 22.603903	 6.827343	 5.178370 
0.289	 58.596632	 22.600120	 6.828630	 5.178569 
0.290	 58.586852	 22.596130	 6.829990	 5.178779 
0.291	 58.576557	 22.591932	 6.831424	 5.179001 
0.292	 58.565744	 22.587525	 6.832931	 5.179234 
0.293	 58.554415	 22.582910	 6.834512	 5.179479 
0.294	 58.542572	 22.578088	 6.836167	 5.179736 
0.295	 58.530221	 22.573062	 6.837896	 5.180003 
0.296	 58.517369	 22.567835	 6.839696	 5.180282 
0.297	 58.504026	 22.562411	 6.841569	 5.180572 
0.298	 58.490203	 22.556797	 6.843511	 5.180873 
0.299	 58.475914	 22.550996	 6.845522	 5.181184 
0.300	 58.461173	 22.545017	 6.847600	 5.181506 
0.301	 58.445999	 22.538865	 6.849742	 5.181837 
0.302	 58.430410	 22.532550	 6.851947	 5.182178 
0.303	 58.414425	 22.526080	 6.854211	 5.182528 
0.304	 58.398068	 22.519463	 6.856531	 5.182887 
0.305	 58.381360	 22.512710	 6.858905	 5.183254 
0.306	 58.364326	 22.505830	 6.861330	 5.183628 
0.307	 58.346993	 22.498835	 6.863802	 5.184010 
0.308	 58.329386	 22.491735	 6.866317	 5.184398 
0.309	 58.311534	 22.484542	 6.868872	 5.184792 
0.310	 58.293466	 22.477268	 6.871463	 5.185191 
0.311	 58.275210	 22.469925	 6.874085	 5.185595 
0.312	 58.256797	 22.462524	 6.876734	 5.186003 
0.313	 58.238257	 22.455079	 6.879407	 5.186414 
0.314	 58.219621	 22.447602	 6.882099	 5.186828 
0.315	 58.200920	 22.440105	 6.884806	 5.187244 
0.316	 58.182187	 22.432601	 6.887522	 5.187661 
0.317	 58.163453	 22.425104	 6.890243	 5.188079 
0.318	 58.144750	 22.417625	 6.892965	 5.188497 
0.319	 58.126110	 22.410178	 6.895683	 5.188913 
0.320	 58.107565	 22.402775	 6.898392	 5.189328 
0.321	 58.089147	 22.395429	 6.901088	 5.189741 
0.322	 58.070888	 22.388152	 6.903766	 5.190151 
0.323	 58.052820	 22.380958	 6.906420	 5.190557 
0.324	 58.034975	 22.373857	 6.909047	 5.190958 
0.325	 58.017382	 22.366863	 6.911641	 5.191354 
0.326	 58.000071	 22.359987	 6.914198	 5.191745 
0.327	 57.983074	 22.353240	 6.916713	 5.192129 
0.328	 57.966417	 22.346633	 6.919183	 5.192505 
0.329	 57.950128	 22.340177	 6.921602	 5.192874 
0.330	 57.934235	 22.333883	 6.923966	 5.193235 
0.331	 57.918761	 22.327759	 6.926272	 5.193586 
0.332	 57.903730	 22.321814	 6.928515	 5.193928 
0.333	 57.889165	 22.316058	 6.930693	 5.194260 
0.334	 57.875086	 22.310497	 6.932801	 5.194582 
0.335	 57.861509	 22.305138	 6.934837	 5.194892 
0.336	 57.848453	 22.299987	 6.936798	 5.195191 
0.337	 57.835930	 22.295049	 6.938682	 5.195478 
0.338	 57.823951	 22.290329	 6.940486	 5.195753 
0.339	 57.812525	 22.285829	 6.942210	 5.196016 
0.340	 57.801659	 22.281552	 6.943851	 5.196267 
0.341	 57.791356	 22.277498	 6.945409	 5.196505 
0.342	 57.781616	 22.273668	 6.946884	 5.196730 
0.343	 57.772438	 22.270060	 6.948276	 5.196943 
0.344	 57.763816	 22.266672	 6.949584	 5.197143 
0.345	 57.755743	 22.263500	 6.950811	 5.197331 
0.346	 57.748208	 22.260542	 6.951957	 5.197506 
0.347	 57.741198	 22.257790	 6.953025	 5.197670 
0.348	 57.734698	 22.255239	 6.954016	 5.197822 
0.349	 57.728690	 22.252882	 6.954932	 5.197963 
0.350	 57.723154	 22.250711	 6.955778	 5.198092 
0.351	 57.718069	 22.248717	 6.956555	 5.198212 
0.352	 57.713410	 22.246890	 6.957267	 5.198322 
0.353	 57.709154	 22.245222	 6.957919	 5.198422 
0.354	 57.705274	 22.243702	 6.958513	 5.198514 
0.355	 57.701743	 22.242318	 6.959054	 5.198597 
0.356	 57.698534	 22.241061	 6.959546	 5.198673 
0.357	 57.695621	 22.239920	 6.959992	 5.198742 
0.358	 57.692976	 22.238884	 6.960398	 5.198805 
0.359	 57.690573	 22.237943	 6.960767	 5.198862 
0.360	 57.688386	 22.237087	 6.961102	 5.198913 
0.361	 57.686390	 22.236305	 6.961409	 5.198960 
0.362	 57.684562	 22.235589	 6.961689	 5.199003 
0.363	 57.682878	 22.234930	 6.961947	 5.199043 
0.364	 57.681318	 22.234319	 6.962186	 5.199080 
0.365	 57.679860	 22.233749	 6.962409	 5.199114 
0.366	 57.678489	 22.233212	 6.962619	 5.199145 
0.367	 57.677188	 22.232703	 6.962818	 5.199176 
0.368	 57.675944	 22.232216	 6.963008	 5.199204 
0.369	 57.674745	 22.231747	 6.963191	 5.199232 
0.370	 57.673582	 22.231292	 6.963369	 5.199258 
0.371	 57.672447	 22.230848	 6.963542	 5.199284 
0.372	 57.671333	 22.230412	 6.963712	 5.199310 
0.373	 57.670235	 22.229983	 6.963879	 5.199335 
0.374	 57.669148	 22.229557	 6.964045	 5.199359 
0.375	 57.668068	 22.229135	 6.964209	 5.199384 
0.376	 57.666992	 22.228714	 6.964373	 5.199408 
0.377	 57.665916	 22.228293	 6.964537	 5.199432 
0.378	 57.664839	 22.227872	 6.964701	 5.199456 
0.379	 57.663758	 22.227449	 6.964866	 5.199481 
0.380	 57.662670	 22.227023	 6.965031	 5.199505 
0.381	 57.661576	 22.226595	 6.965198	 5.199530 
0.382	 57.660473	 22.226164	 6.965366	 5.199555 
0.383	 57.659361	 22.225729	 6.965535	 5.199579 
0.384	 57.658240	 22.225291	 6.965706	 5.199605 
0.385	 57.657109	 22.224849	 6.965878	 5.199630 
0.386	 57.655969	 22.224403	 6.966052	 5.199656 
0.387	 57.654818	 22.223953	 6.966227	 5.199681 
0.388	 57.653656	 22.223499	 6.966404	 5.199708 
0.389	 57.652483	 22.223040	 6.966583	 5.199734 
0.390	 57.651298	 22.222577	 6.966763	 5.199760 
0.391	 57.650100	 22.222108	 6.966946	 5.199787 
0.392	 57.648888	 22.221635	 6.967130	 5.199814 
0.393	 57.647664	 22.221156	 6.967317	 5.199842 
0.394	 57.646427	 22.220673	 6.967505	 5.199870 
0.395	 57.645179	 22.220185	 6.967696	 5.199898 
0.396	 57.643920	 22.219693	 6.967888	 5.199926 
0.397	 57.642651	 22.219197	 6.968081	 5.199954 
0.398	 57.641375	 22.218699	 6.968276	 5.199983 
0.399	 57.640092	 22.218197	 6.968471	 5.200012 
0.400	 57.638804	 22.217694	 6.968668	 5.200041 
0.401	 57.637513	 22.217190	 6.968865	 5.200070 
0.402	 57.636219	 22.216684	 6.969063	 5.200099 
0.403	 57.634925	 22.216179	 6.969260	 5.200128 
0.404	 57.633631	 22.215673	 6.969458	 5.200158 
0.405	 57.632339	 22.215169	 6.969655	 5.200187 
0.406	 57.631051	 22.214665	 6.969852	 5.200216 
